UBB Dec12 1728 Average.d24 - THz Start: 187.69 mm, 1000 points, 10 fs - Pump Probe Time: 0.45 ps, Pump Motor Position: 95.3850 mm, 46 points, -50 fs - Wait: 400 ms -  Averages: 1 - Lock-In 1: 500 mV/mA, 100 ms - Lock-In 2: 500 mV/mA, 100 ms
0.010000	0.003947	-0.000244
0.020000	0.003886	0.000376
0.030000	0.004344	-0.000539
0.040000	0.003927	-0.000275
0.050000	0.003886	-0.000031
0.060000	0.003988	-0.000275
0.070000	0.004456	0.000498
0.080000	0.004130	-0.000132
0.090000	0.003479	-0.000142
0.100000	0.004140	-0.000224
0.110000	0.004588	-0.000224
0.120000	0.004191	0.000193
0.130000	0.004222	0.000020
0.140000	0.003947	-0.000214
0.150000	0.004517	-0.000102
0.160000	0.003916	-0.000193
0.170000	0.004069	-0.000122
0.180000	0.004272	0.000122
0.190000	0.004201	0.000061
0.200000	0.004466	0.000061
0.210000	0.004059	-0.000214
0.220000	0.004740	-0.000326
0.230000	0.004618	0.000224
0.240000	0.004049	-0.000041
0.250000	0.004089	0.000020
0.260000	0.004425	0.000010
0.270000	0.003805	-0.000468
0.280000	0.005137	-0.000234
0.290000	0.004222	-0.000000
0.300000	0.004039	-0.000244
0.310000	0.003988	0.000132
0.320000	0.003906	0.000244
0.330000	0.004232	0.000020
0.340000	0.003805	0.000000
0.350000	0.004425	0.000214
0.360000	0.004161	-0.000214
0.370000	0.004476	0.000102
0.380000	0.004079	-0.000163
0.390000	0.003723	-0.000163
0.400000	0.003866	0.000488
0.410000	0.003764	-0.000407
0.420000	0.004354	-0.000092
0.430000	0.004293	-0.000224
0.440000	0.004222	-0.000010
0.450000	0.003611	0.000793
0.460000	0.003123	0.000387
0.470000	0.003499	-0.000865
0.480000	0.004425	-0.000407
0.490000	0.004405	0.000631
0.500000	0.004211	-0.000153
0.510000	0.004415	0.000081
0.520000	0.004272	0.000041
0.530000	0.003998	-0.000142
0.540000	0.004028	0.000163
0.550000	0.004466	0.000163
0.560000	0.003896	-0.000173
0.570000	0.004089	0.000041
0.580000	0.004262	0.000041
0.590000	0.004100	-0.000427
0.600000	0.004557	0.000031
0.610000	0.004283	-0.000132
0.620000	0.003682	0.000498
0.630000	0.003845	-0.000264
0.640000	0.003489	-0.000315
0.650000	0.004272	0.000509
0.660000	0.003805	-0.000356
0.670000	0.004059	-0.000061
0.680000	0.004201	0.000010
0.690000	0.004323	0.000000
0.700000	0.004690	-0.000529
0.710000	0.004618	0.000092
0.720000	0.003998	0.000102
0.730000	0.004374	-0.000173
0.740000	0.004283	-0.000549
0.750000	0.004476	-0.000336
0.760000	0.003866	0.000244
0.770000	0.004191	0.000061
0.780000	0.004425	-0.000346
0.790000	0.004537	-0.000173
0.800000	0.004527	0.000031
0.810000	0.003977	-0.000173
0.820000	0.004425	0.000509
0.830000	0.003510	-0.000437
0.840000	0.003977	-0.000254
0.850000	0.004405	-0.000631
0.860000	0.003967	0.000061
0.870000	0.004120	-0.000041
0.880000	0.003927	-0.000468
0.890000	0.004323	-0.000264
0.900000	0.003977	-0.000153
0.910000	0.004120	-0.000112
0.920000	0.004161	0.000031
0.930000	0.004201	0.000092
0.940000	0.004100	-0.000081
0.950000	0.004232	-0.000071
0.960000	0.004252	0.000061
0.970000	0.004517	0.000214
0.980000	0.004211	-0.000275
0.990000	0.004334	-0.000366
1.000000	0.004181	0.000183
1.010000	0.003642	0.000427
1.020000	0.004496	-0.000722
1.030000	0.004405	0.000224
1.040000	0.003998	0.000081
1.050000	0.004211	-0.000041
1.060000	0.004710	0.000081
1.070000	0.004700	0.000081
1.080000	0.004232	0.000102
1.090000	0.004832	0.000102
1.100000	0.004425	-0.000061
1.110000	0.005015	0.000031
1.120000	0.004079	0.000397
1.130000	0.004456	0.000254
1.140000	0.004679	0.000092
1.150000	0.004618	0.000010
1.160000	0.005005	-0.000397
1.170000	0.004567	0.000112
1.180000	0.004710	-0.000448
1.190000	0.004598	0.000692
1.200000	0.004364	0.001038
1.210000	0.005035	-0.000071
1.220000	0.004995	0.000356
1.230000	0.005503	0.000387
1.240000	0.005005	0.000651
1.250000	0.004354	0.000366
1.260000	0.005432	0.000336
1.270000	0.005595	-0.000163
1.280000	0.006490	-0.000081
1.290000	0.008606	0.000305
1.300000	0.010763	0.000529
1.310000	0.014221	0.001801
1.320000	0.017080	0.002706
1.330000	0.018809	0.004008
1.340000	0.019409	0.004964
1.350000	0.014140	0.004954
1.360000	0.006439	0.003550
1.370000	-0.002655	0.000712
1.380000	-0.011719	-0.001994
1.390000	-0.016276	-0.006287
1.400000	-0.016887	-0.007212
1.410000	-0.013906	-0.006765
1.420000	-0.010396	-0.005493
1.430000	-0.005798	-0.003723
1.440000	-0.003072	-0.000763
1.450000	-0.000905	0.000621
1.460000	0.000315	0.001536
1.470000	0.001892	0.001851
1.480000	0.003957	0.002513
1.490000	0.007477	0.001424
1.500000	0.011627	0.000692
1.510000	0.017741	0.002106
1.520000	0.023743	0.001709
1.530000	0.028463	0.003255
1.540000	0.028015	0.002747
1.550000	0.025309	0.005096
1.560000	0.013641	0.002014
1.570000	0.003174	0.001994
1.580000	-0.010132	-0.001577
1.590000	-0.018178	-0.003510
1.600000	-0.022726	-0.004578
1.610000	-0.022105	-0.004801
1.620000	-0.019379	-0.004649
1.630000	-0.013947	-0.002970
1.640000	-0.009572	-0.001231
1.650000	-0.006836	0.000895
1.660000	-0.004934	0.001607
1.670000	-0.003957	0.001923
1.680000	-0.002360	0.002126
1.690000	0.000081	0.001801
1.700000	0.001892	0.001740
1.710000	0.005534	0.000854
1.720000	0.007426	-0.000437
1.730000	0.008911	-0.000102
1.740000	0.011983	-0.001719
1.750000	0.014109	-0.001780
1.760000	0.015584	-0.002716
1.770000	0.015859	-0.002482
1.780000	0.014699	-0.002747
1.790000	0.013713	-0.002899
1.800000	0.011973	-0.002513
1.810000	0.009593	-0.001821
1.820000	0.006877	-0.001200
1.830000	0.005096	-0.000458
1.840000	0.003540	0.000183
1.850000	0.001892	0.000834
1.860000	0.001699	0.001465
1.870000	0.000509	0.002035
1.880000	0.002116	0.001831
1.890000	0.002360	0.001658
1.900000	0.004059	0.001546
1.910000	0.005208	0.001272
1.920000	0.005890	0.001221
1.930000	0.009298	0.000407
1.940000	0.010763	0.000336
1.950000	0.012044	-0.000549
1.960000	0.013102	-0.001363
1.970000	0.012126	-0.001322
1.980000	0.012370	-0.002126
1.990000	0.011892	-0.002594
2.000000	0.010854	-0.002096
2.010000	0.009176	-0.001709
2.020000	0.008494	-0.001414
2.030000	0.005259	-0.000081
2.040000	0.004018	0.000295
2.050000	0.003672	-0.000010
2.060000	0.001668	0.001129
2.070000	0.001119	0.000977
2.080000	-0.000051	0.002228
2.090000	0.000549	0.001526
2.100000	0.001841	0.001831
2.110000	0.002747	0.001363
2.120000	0.003896	0.001211
2.130000	0.005758	0.000834
2.140000	0.007161	0.001048
2.150000	0.008474	0.000020
2.160000	0.009613	-0.000264
2.170000	0.010193	-0.000559
2.180000	0.010020	-0.001099
2.190000	0.010335	-0.000895
2.200000	0.009715	-0.001272
2.210000	0.008901	-0.001516
2.220000	0.006510	-0.000834
2.230000	0.005890	-0.000315
2.240000	0.005025	-0.000275
2.250000	0.003896	0.000804
2.260000	0.001475	0.001058
2.270000	0.000559	0.000285
2.280000	0.000559	0.001495
2.290000	0.000417	0.001851
2.300000	0.000916	0.001302
2.310000	0.001801	0.001485
2.320000	0.002574	0.001404
2.330000	0.003988	0.000956
2.340000	0.004608	0.000895
2.350000	0.005636	0.000559
2.360000	0.006866	0.000081
2.370000	0.007446	-0.000285
2.380000	0.007965	-0.000224
2.390000	0.008484	-0.000397
2.400000	0.007945	-0.000478
2.410000	0.006928	-0.000854
2.420000	0.006266	-0.000448
2.430000	0.006297	-0.000661
2.440000	0.004028	0.000051
2.450000	0.003479	0.000183
2.460000	0.002431	0.000275
2.470000	0.001536	0.000702
2.480000	0.000366	0.000712
2.490000	0.000956	0.000753
2.500000	0.000682	0.000854
2.510000	0.001628	0.000346
2.520000	0.002370	0.001740
2.530000	0.002970	0.000610
2.540000	0.003398	0.000366
2.550000	0.004405	-0.000234
2.560000	0.004669	-0.000305
2.570000	0.005351	-0.000183
2.580000	0.005758	-0.000122
2.590000	0.006215	-0.000956
2.600000	0.005442	-0.000600
2.610000	0.005381	-0.000214
2.620000	0.004730	-0.001109
2.630000	0.003571	-0.000539
2.640000	0.003866	-0.000163
2.650000	0.002716	0.000193
2.660000	0.002594	0.000366
2.670000	0.002319	-0.000092
2.680000	0.001556	0.000153
2.690000	0.001516	0.000854
2.700000	0.001658	0.000539
2.710000	0.001872	0.000529
2.720000	0.002045	0.000448
2.730000	0.002736	0.000153
2.740000	0.002716	-0.000254
2.750000	0.003682	-0.000498
2.760000	0.004191	-0.000234
2.770000	0.005107	-0.000570
2.780000	0.004445	-0.001109
2.790000	0.004262	-0.000885
2.800000	0.005208	-0.000671
2.810000	0.004608	-0.000529
2.820000	0.003998	-0.001200
2.830000	0.003459	-0.000071
2.840000	0.003825	-0.000315
2.850000	0.003387	0.000102
2.860000	0.002828	-0.000275
2.870000	0.002258	0.000488
2.880000	0.002614	-0.000071
2.890000	0.002543	0.000387
2.900000	0.002614	0.000722
2.910000	0.002553	0.000834
2.920000	0.002879	-0.000020
2.930000	0.003733	-0.000285
2.940000	0.003449	-0.000539
2.950000	0.004089	-0.000315
2.960000	0.004629	-0.000549
2.970000	0.004506	-0.001200
2.980000	0.004110	-0.001027
2.990000	0.004822	-0.000234
3.000000	0.004954	-0.000824
3.010000	0.004283	-0.000895
3.020000	0.004791	-0.000478
3.030000	0.003947	-0.000488
3.040000	0.003967	-0.000132
3.050000	0.003581	-0.000376
3.060000	0.003479	0.000081
3.070000	0.003021	0.000051
3.080000	0.002787	0.000356
3.090000	0.003194	0.000437
3.100000	0.003011	0.000234
3.110000	0.003438	0.000244
3.120000	0.003835	-0.000122
3.130000	0.003581	0.000417
3.140000	0.004201	-0.000580
3.150000	0.004883	0.000376
3.160000	0.004771	-0.000214
3.170000	0.004791	0.000061
3.180000	0.005524	-0.000641
3.190000	0.005473	-0.000743
3.200000	0.005066	-0.000244
3.210000	0.004598	-0.000844
3.220000	0.004629	-0.000346
3.230000	0.004191	0.000041
3.240000	0.003774	-0.000061
3.250000	0.003652	0.000234
3.260000	0.003367	0.000366
3.270000	0.003540	-0.000193
3.280000	0.003927	0.000010
3.290000	0.003225	0.000885
3.300000	0.003204	0.000142
3.310000	0.002930	0.000590
3.320000	0.004191	-0.000631
3.330000	0.004547	-0.000264
3.340000	0.004679	-0.000570
3.350000	0.004751	-0.000193
3.360000	0.004629	0.000081
3.370000	0.005503	0.000112
3.380000	0.005178	-0.000031
3.390000	0.005819	-0.000509
3.400000	0.005341	-0.000417
3.410000	0.005046	0.000092
3.420000	0.004456	-0.000264
3.430000	0.004517	-0.000224
3.440000	0.004323	-0.000214
3.450000	0.003479	-0.000020
3.460000	0.003479	0.000387
3.470000	0.003398	-0.000387
3.480000	0.003499	0.000315
3.490000	0.002441	0.000621
3.500000	0.002757	-0.000041
3.510000	0.003479	0.000702
3.520000	0.003276	0.000498
3.530000	0.003937	0.000458
3.540000	0.004466	0.000570
3.550000	0.004679	-0.000671
3.560000	0.004578	-0.000031
3.570000	0.005351	-0.000478
3.580000	0.005432	-0.000264
3.590000	0.005707	-0.000376
3.600000	0.005178	-0.000661
3.610000	0.005463	-0.000763
3.620000	0.004293	-0.000000
3.630000	0.004283	-0.000041
3.640000	0.003805	-0.000326
3.650000	0.003947	0.000356
3.660000	0.003377	0.000153
3.670000	0.003347	0.000549
3.680000	0.003204	0.000346
3.690000	0.002889	0.000661
3.700000	0.003835	0.001027
3.710000	0.003092	-0.000092
3.720000	0.003438	0.000051
3.730000	0.003245	-0.000020
3.740000	0.004557	0.000031
3.750000	0.004771	0.000214
3.760000	0.004334	-0.000071
3.770000	0.004893	-0.000387
3.780000	0.005086	-0.000203
3.790000	0.004669	0.000092
3.800000	0.004445	0.000366
3.810000	0.004334	-0.000692
3.820000	0.005188	-0.000153
3.830000	0.004486	0.000234
3.840000	0.003703	0.000010
3.850000	0.003825	-0.000173
3.860000	0.004415	-0.000020
3.870000	0.003835	-0.000153
3.880000	0.003652	-0.000061
3.890000	0.003499	-0.000020
3.900000	0.003469	0.000071
3.910000	0.003337	-0.000285
3.920000	0.003296	0.000153
3.930000	0.003967	0.000366
3.940000	0.004140	0.000203
3.950000	0.004313	-0.000010
3.960000	0.004924	-0.000448
3.970000	0.005157	-0.000020
3.980000	0.005127	-0.000621
3.990000	0.005595	-0.000132
4.000000	0.004517	-0.000173
4.010000	0.004435	-0.000275
4.020000	0.004903	-0.000600
4.030000	0.005066	0.000387
4.040000	0.004069	0.000203
4.050000	0.004049	0.000051
4.060000	0.003733	0.000244
4.070000	0.004059	-0.000509
4.080000	0.003835	-0.000793
4.090000	0.003082	0.000275
4.100000	0.004008	0.000092
4.110000	0.003479	0.000397
4.120000	0.004028	0.000478
4.130000	0.004313	0.000804
4.140000	0.003906	-0.000468
4.150000	0.003896	-0.000234
4.160000	0.004374	-0.000356
4.170000	0.004567	0.000264
4.180000	0.004598	-0.000000
4.190000	0.004944	-0.000376
4.200000	0.004822	-0.000254
4.210000	0.005035	0.000010
4.220000	0.004873	-0.000702
4.230000	0.004598	-0.000366
4.240000	0.003703	0.000244
4.250000	0.004232	0.000020
4.260000	0.004761	0.000173
4.270000	0.004100	0.000631
4.280000	0.004161	-0.000071
4.290000	0.004354	-0.000153
4.300000	0.004079	0.000356
4.310000	0.003764	0.000621
4.320000	0.003387	-0.000000
4.330000	0.003876	0.000397
4.340000	0.003815	0.000183
4.350000	0.004883	-0.000417
4.360000	0.004242	0.000112
4.370000	0.004466	0.000092
4.380000	0.004456	-0.000081
4.390000	0.004934	-0.000041
4.400000	0.004079	0.000092
4.410000	0.004476	-0.000224
4.420000	0.005147	-0.000509
4.430000	0.004323	-0.000315
4.440000	0.004842	-0.000041
4.450000	0.004140	-0.000366
4.460000	0.004893	-0.000122
4.470000	0.004201	-0.000203
4.480000	0.004334	0.000092
4.490000	0.003479	0.000305
4.500000	0.004232	0.000285
4.510000	0.004283	0.000610
4.520000	0.003998	0.000570
4.530000	0.004201	0.000132
4.540000	0.004100	-0.000346
4.550000	0.003805	-0.000061
4.560000	0.004761	-0.000203
4.570000	0.004517	0.000081
4.580000	0.004740	-0.000132
4.590000	0.005127	-0.000071
4.600000	0.004629	0.000153
4.610000	0.004334	-0.000275
4.620000	0.004049	0.000254
4.630000	0.004395	0.000397
4.640000	0.003937	0.000275
4.650000	0.004537	-0.000244
4.660000	0.004120	-0.000193
4.670000	0.004089	0.000417
4.680000	0.004140	0.000346
4.690000	0.003815	0.000285
4.700000	0.003418	0.000000
4.710000	0.004079	0.000326
4.720000	0.003927	-0.000193
4.730000	0.004669	0.000203
4.740000	0.004395	0.000214
4.750000	0.004690	-0.000010
4.760000	0.004567	0.000051
4.770000	0.004384	0.000376
4.780000	0.004547	0.000122
4.790000	0.004740	0.000224
4.800000	0.004374	-0.000315
4.810000	0.003855	-0.000102
4.820000	0.003550	0.000264
4.830000	0.003947	-0.000478
4.840000	0.004059	0.000092
4.850000	0.003784	0.000264
4.860000	0.004334	0.000468
4.870000	0.003723	0.000519
4.880000	0.003988	-0.000173
4.890000	0.004659	-0.000621
4.900000	0.003754	0.000041
4.910000	0.003988	0.000102
4.920000	0.004344	-0.000254
4.930000	0.004618	-0.000000
4.940000	0.004669	-0.000214
4.950000	0.005127	0.000102
4.960000	0.004781	0.000061
4.970000	0.005066	-0.000264
4.980000	0.004466	-0.000387
4.990000	0.005219	-0.000417
5.000000	0.004242	0.000285
5.010000	0.004303	-0.000437
5.020000	0.004171	-0.000061
5.030000	0.004466	-0.000173
5.040000	0.004730	-0.000051
5.050000	0.004486	0.000549
5.060000	0.004283	0.000163
5.070000	0.004150	-0.000376
5.080000	0.003876	0.000214
5.090000	0.004730	0.000163
5.100000	0.004089	-0.000010
5.110000	0.004873	-0.000122
5.120000	0.004425	0.000031
5.130000	0.004862	0.000142
5.140000	0.004995	-0.000041
5.150000	0.004405	-0.000376
5.160000	0.004659	0.000183
5.170000	0.004395	-0.000041
5.180000	0.004456	0.000081
5.190000	0.004618	0.000092
5.200000	0.004557	0.000071
5.210000	0.004517	0.000346
5.220000	0.004781	-0.000559
5.230000	0.003764	-0.000081
5.240000	0.004334	0.000264
5.250000	0.004679	-0.000224
5.260000	0.004323	0.000122
5.270000	0.004384	0.000010
5.280000	0.003754	0.000539
5.290000	0.003825	-0.000102
5.300000	0.004181	0.000621
5.310000	0.004344	-0.000092
5.320000	0.005015	-0.000651
5.330000	0.003947	-0.000264
5.340000	0.004547	-0.000356
5.350000	0.004517	-0.000580
5.360000	0.004527	-0.000203
5.370000	0.004486	-0.000631
5.380000	0.004639	-0.000183
5.390000	0.004740	-0.000081
5.400000	0.004547	-0.000285
5.410000	0.004679	-0.000580
5.420000	0.004405	0.000631
5.430000	0.004496	0.000376
5.440000	0.005066	-0.000427
5.450000	0.004049	-0.000183
5.460000	0.003347	0.000580
5.470000	0.005005	0.000895
5.480000	0.004069	-0.000203
5.490000	0.004334	-0.000549
5.500000	0.004527	-0.000031
5.510000	0.005025	0.000346
5.520000	0.004679	0.000224
5.530000	0.004873	0.001343
5.540000	0.003855	-0.000041
5.550000	0.004079	-0.000509
5.560000	0.004496	-0.000315
5.570000	0.004842	0.000092
5.580000	0.004720	0.000264
5.590000	0.004842	0.000132
5.600000	0.004812	0.000193
5.610000	0.003835	0.000071
5.620000	0.004018	0.000346
5.630000	0.004201	-0.000092
5.640000	0.004262	0.000193
5.650000	0.004211	0.000020
5.660000	0.004252	0.000061
5.670000	0.004303	-0.000010
5.680000	0.004222	0.000315
5.690000	0.003510	0.000285
5.700000	0.003713	0.000549
5.710000	0.004405	0.000448
5.720000	0.003866	0.000600
5.730000	0.004283	-0.000041
5.740000	0.004924	-0.000570
5.750000	0.004079	-0.000753
5.760000	0.005107	-0.000509
5.770000	0.004567	0.000071
5.780000	0.005137	0.000122
5.790000	0.004323	0.000326
5.800000	0.004354	-0.000244
5.810000	0.004659	-0.000498
5.820000	0.004700	-0.000071
5.830000	0.004659	-0.000031
5.840000	0.004649	0.000234
5.850000	0.004924	0.000417
5.860000	0.004140	0.000061
5.870000	0.004039	-0.000061
5.880000	0.003998	-0.000743
5.890000	0.004242	-0.000641
5.900000	0.004100	0.000020
5.910000	0.004008	0.000031
5.920000	0.004079	-0.000519
5.930000	0.004456	-0.000387
5.940000	0.004018	-0.000763
5.950000	0.004812	-0.000966
5.960000	0.004242	-0.000142
5.970000	0.003784	0.000773
5.980000	0.003876	-0.000183
5.990000	0.003876	-0.000549
6.000000	0.005137	-0.000041
6.010000	0.004150	-0.000122
6.020000	0.004161	-0.000244
6.030000	0.004110	-0.000031
6.040000	0.004456	-0.000509
6.050000	0.004384	0.000142
6.060000	0.004313	-0.000132
6.070000	0.003713	0.000183
6.080000	0.004059	-0.000061
6.090000	0.004445	-0.000000
6.100000	0.004313	0.000559
6.110000	0.005005	0.000366
6.120000	0.004171	0.000071
6.130000	0.004527	0.000224
6.140000	0.004496	0.000000
6.150000	0.004334	-0.000376
6.160000	0.004272	0.000173
6.170000	0.004537	-0.000183
6.180000	0.004598	-0.000397
6.190000	0.004150	0.000173
6.200000	0.004496	0.000468
6.210000	0.004486	-0.000621
6.220000	0.004120	0.000020
6.230000	0.004425	-0.000224
6.240000	0.004018	0.000458
6.250000	0.004120	0.000977
6.260000	0.004130	-0.000529
6.270000	0.004283	-0.000224
6.280000	0.004232	0.000132
6.290000	0.004893	-0.000804
6.300000	0.004334	0.000041
6.310000	0.004303	0.000315
6.320000	0.004995	0.000509
6.330000	0.005473	-0.000031
6.340000	0.004791	-0.000071
6.350000	0.004995	-0.000142
6.360000	0.004476	-0.000346
6.370000	0.004710	0.000041
6.380000	0.004934	0.000498
6.390000	0.004242	-0.000397
6.400000	0.003632	-0.000885
6.410000	0.004547	-0.000519
6.420000	0.003611	-0.000702
6.430000	0.003642	-0.000031
6.440000	0.004110	0.000031
6.450000	0.003754	0.000031
6.460000	0.003723	0.001058
6.470000	0.004272	-0.000437
6.480000	0.004588	0.000326
6.490000	0.004862	-0.000661
6.500000	0.004476	0.000600
6.510000	0.004944	-0.000031
6.520000	0.004293	-0.000051
6.530000	0.004547	-0.000041
6.540000	0.004659	0.000163
6.550000	0.004496	0.000407
6.560000	0.004395	-0.000427
6.570000	0.004395	-0.000397
6.580000	0.003845	-0.000427
6.590000	0.003540	0.000336
6.600000	0.004171	-0.000142
6.610000	0.004201	0.000458
6.620000	0.004547	0.000000
6.630000	0.004364	0.000407
6.640000	0.004069	-0.000203
6.650000	0.004171	-0.000071
6.660000	0.004588	-0.000427
6.670000	0.004039	0.000295
6.680000	0.003947	-0.000020
6.690000	0.004669	-0.000041
6.700000	0.004649	0.000142
6.710000	0.004161	-0.000244
6.720000	0.004110	-0.000173
6.730000	0.004537	-0.000387
6.740000	0.004069	-0.000102
6.750000	0.004140	0.000753
6.760000	0.004232	0.000753
6.770000	0.004110	0.000173
6.780000	0.005198	-0.000437
6.790000	0.004018	0.000671
6.800000	0.003672	0.000610
6.810000	0.004191	-0.000244
6.820000	0.004354	-0.000071
6.830000	0.004364	-0.000376
6.840000	0.004618	-0.000488
6.850000	0.003845	0.000397
6.860000	0.004547	0.000153
6.870000	0.004435	0.000153
6.880000	0.004039	0.000173
6.890000	0.004242	0.000020
6.900000	0.004822	0.000376
6.910000	0.004679	-0.000061
6.920000	0.004527	-0.000549
6.930000	0.003835	-0.000397
6.940000	0.004476	0.000336
6.950000	0.003957	0.000122
6.960000	0.004639	0.000264
6.970000	0.004700	-0.000153
6.980000	0.004852	-0.000926
6.990000	0.004425	-0.000000
7.000000	0.004639	-0.000010
7.010000	0.004130	0.000071
7.020000	0.005015	0.000539
7.030000	0.003143	0.000437
7.040000	0.004486	-0.000529
7.050000	0.004608	0.000559
7.060000	0.004334	0.000000
7.070000	0.004232	-0.000214
7.080000	0.004354	-0.000448
7.090000	0.004567	-0.000600
7.100000	0.003601	-0.000580
7.110000	0.003998	-0.000356
7.120000	0.004161	-0.000102
7.130000	0.004445	0.000336
7.140000	0.004618	-0.000061
7.150000	0.004334	0.000000
7.160000	0.004547	-0.000224
7.170000	0.004954	0.000305
7.180000	0.004903	-0.000366
7.190000	0.005076	-0.000570
7.200000	0.004262	0.000122
7.210000	0.004466	-0.000132
7.220000	0.004334	0.000570
7.230000	0.004425	0.000336
7.240000	0.004008	0.000264
7.250000	0.003805	-0.000264
7.260000	0.003581	-0.000346
7.270000	0.003876	-0.000031
7.280000	0.004272	0.000071
7.290000	0.004232	0.000102
7.300000	0.004679	-0.000254
7.310000	0.004283	-0.000102
7.320000	0.004517	0.000275
7.330000	0.003652	-0.000539
7.340000	0.004100	-0.000234
7.350000	0.004140	-0.000376
7.360000	0.004415	-0.000254
7.370000	0.004506	0.000234
7.380000	0.004313	-0.000498
7.390000	0.003815	-0.000448
7.400000	0.005096	-0.000010
7.410000	0.004690	0.000092
7.420000	0.004313	0.000946
7.430000	0.004832	0.000193
7.440000	0.004435	0.000854
7.450000	0.004334	-0.000000
7.460000	0.003438	0.000183
7.470000	0.003540	0.000834
7.480000	0.004323	0.000326
7.490000	0.003977	0.000916
7.500000	0.004374	0.000356
7.510000	0.003967	-0.000081
7.520000	0.003204	0.000224
7.530000	0.003754	-0.000427
7.540000	0.004588	0.000305
7.550000	0.004039	0.000346
7.560000	0.003988	0.000183
7.570000	0.003784	0.000020
7.580000	0.004395	0.000193
7.590000	0.003937	0.000112
7.600000	0.004527	0.000275
7.610000	0.004120	0.000071
7.620000	0.003733	0.000458
7.630000	0.004395	0.000926
7.640000	0.004089	-0.000173
7.650000	0.004476	-0.000417
7.660000	0.004272	-0.000020
7.670000	0.004354	0.000051
7.680000	0.004608	-0.000142
7.690000	0.003347	-0.000142
7.700000	0.004506	-0.000254
7.710000	0.003835	-0.000559
7.720000	0.004486	-0.000468
7.730000	0.004008	-0.000519
7.740000	0.004445	0.000712
7.750000	0.004506	-0.000509
7.760000	0.003428	-0.000102
7.770000	0.004700	0.000041
7.780000	0.004445	-0.000346
7.790000	0.003133	-0.000315
7.800000	0.004008	0.000122
7.810000	0.004150	0.000041
7.820000	0.003805	0.000020
7.830000	0.004120	0.000600
7.840000	0.004028	-0.000051
7.850000	0.004547	0.000132
7.860000	0.004150	-0.000387
7.870000	0.004679	0.000041
7.880000	0.004547	-0.000173
7.890000	0.003967	0.000641
7.900000	0.004547	-0.000061
7.910000	0.004171	-0.000305
7.920000	0.004395	-0.000153
7.930000	0.004242	-0.000315
7.940000	0.004985	-0.000224
7.950000	0.005107	-0.000448
7.960000	0.004985	-0.000437
7.970000	0.004669	-0.000366
7.980000	0.004506	0.000092
7.990000	0.004517	0.000315
8.000000	0.004395	-0.000315
8.010000	0.004039	-0.000102
8.020000	0.003805	-0.000326
8.030000	0.004272	-0.000539
8.040000	0.004252	0.000285
8.050000	0.004059	0.000010
8.060000	0.004161	-0.000905
8.070000	0.004496	-0.000234
8.080000	0.004537	0.000061
8.090000	0.004690	-0.000000
8.100000	0.004476	-0.000559
8.110000	0.003744	-0.000275
8.120000	0.004201	0.000570
8.130000	0.004079	-0.000244
8.140000	0.003896	-0.000132
8.150000	0.004537	-0.000366
8.160000	0.004303	-0.000692
8.170000	0.003977	-0.000326
8.180000	0.004435	0.000437
8.190000	0.003398	0.001190
8.200000	0.004791	0.000132
8.210000	0.004201	-0.000407
8.220000	0.004812	0.000081
8.230000	0.003906	-0.000804
8.240000	0.003845	-0.000529
8.250000	0.003957	-0.000519
8.260000	0.003672	-0.000305
8.270000	0.004211	-0.000987
8.280000	0.004740	-0.000010
8.290000	0.004211	-0.000041
8.300000	0.004598	-0.000031
8.310000	0.004801	-0.000142
8.320000	0.004191	0.000529
8.330000	0.004018	-0.000092
8.340000	0.004293	-0.000295
8.350000	0.004211	0.000051
8.360000	0.004089	0.000122
8.370000	0.003957	-0.000254
8.380000	0.004181	-0.000346
8.390000	0.003754	-0.000041
8.400000	0.004517	0.000376
8.410000	0.004496	0.000773
8.420000	0.004211	-0.000092
8.430000	0.004140	0.000193
8.440000	0.004089	-0.000610
8.450000	0.003876	0.000305
8.460000	0.003733	-0.000142
8.470000	0.004252	0.000153
8.480000	0.003886	0.000397
8.490000	0.004334	-0.000336
8.500000	0.004608	-0.000275
8.510000	0.004171	0.000600
8.520000	0.004985	0.000163
8.530000	0.004242	0.000264
8.540000	0.004659	0.000092
8.550000	0.003957	-0.000254
8.560000	0.004567	0.000346
8.570000	0.004283	-0.000336
8.580000	0.004527	-0.000010
8.590000	0.003896	0.000163
8.600000	0.004069	0.000519
8.610000	0.003916	-0.000315
8.620000	0.004252	-0.000041
8.630000	0.004374	-0.000071
8.640000	0.004089	0.000041
8.650000	0.003611	0.000275
8.660000	0.003825	0.000122
8.670000	0.003906	0.000010
8.680000	0.003591	-0.000142
8.690000	0.004517	-0.000000
8.700000	0.004100	-0.000092
8.710000	0.004445	-0.000264
8.720000	0.003967	0.000905
8.730000	0.004354	0.000722
8.740000	0.004730	-0.000173
8.750000	0.004100	-0.000743
8.760000	0.004150	0.000142
8.770000	0.004161	0.000651
8.780000	0.004476	-0.000254
8.790000	0.004364	0.000132
8.800000	0.004262	0.000041
8.810000	0.003672	-0.000498
8.820000	0.003977	0.000112
8.830000	0.004150	0.000275
8.840000	0.003876	0.000153
8.850000	0.004852	-0.000407
8.860000	0.004334	0.000376
8.870000	0.004171	-0.000549
8.880000	0.003754	0.000468
8.890000	0.004130	-0.000315
8.900000	0.004771	-0.000102
8.910000	0.003754	-0.000305
8.920000	0.004140	0.000092
8.930000	0.004150	-0.000387
8.940000	0.002981	0.000041
8.950000	0.003326	-0.001373
8.960000	0.003855	-0.000020
8.970000	0.003744	0.000031
8.980000	0.004293	-0.000061
8.990000	0.003276	0.000722
9.000000	0.004639	0.000193
9.010000	0.004039	0.000743
9.020000	0.004527	0.000417
9.030000	0.003855	0.000427
9.040000	0.003835	0.000071
9.050000	0.004120	0.000437
9.060000	0.003876	-0.000071
9.070000	0.004364	0.000326
9.080000	0.004272	0.000010
9.090000	0.004842	-0.000142
9.100000	0.004232	-0.000163
9.110000	0.003896	-0.000539
9.120000	0.004232	0.000153
9.130000	0.004201	-0.000275
9.140000	0.004445	-0.000570
9.150000	0.004517	0.000702
9.160000	0.004354	-0.000539
9.170000	0.004659	-0.000397
9.180000	0.004100	0.000041
9.190000	0.004700	-0.000702
9.200000	0.004018	0.000743
9.210000	0.003581	-0.000061
9.220000	0.004232	0.000763
9.230000	0.004374	-0.000081
9.240000	0.004415	0.000356
9.250000	0.003347	-0.000203
9.260000	0.003977	0.000275
9.270000	0.004283	-0.000427
9.280000	0.003123	0.000153
9.290000	0.003794	0.000366
9.300000	0.003306	0.000193
9.310000	0.003764	-0.000315
9.320000	0.004242	0.000285
9.330000	0.004110	0.000061
9.340000	0.004445	0.000315
9.350000	0.004537	0.000305
9.360000	0.004049	0.000102
9.370000	0.004018	0.000183
9.380000	0.003784	0.000031
9.390000	0.003896	0.000214
9.400000	0.003754	-0.000651
9.410000	0.003886	-0.000010
9.420000	0.004181	-0.000458
9.430000	0.004262	0.000559
9.440000	0.003326	-0.000061
9.450000	0.004476	0.000549
9.460000	0.003296	-0.000071
9.470000	0.004059	-0.000183
9.480000	0.004242	0.000254
9.490000	0.004283	-0.000610
9.500000	0.004181	-0.000437
9.510000	0.004191	0.000224
9.520000	0.004445	-0.000417
9.530000	0.004323	0.000010
9.540000	0.004415	0.000315
9.550000	0.004283	0.000031
9.560000	0.004059	0.000102
9.570000	0.004913	-0.000010
9.580000	0.005015	0.000051
9.590000	0.003815	-0.000559
9.600000	0.003805	-0.000203
9.610000	0.004537	0.000427
9.620000	0.004374	-0.000203
9.630000	0.004293	-0.000254
9.640000	0.004293	0.000498
9.650000	0.004171	-0.000417
9.660000	0.004150	0.000224
9.670000	0.003825	0.000112
9.680000	0.003754	0.000193
9.690000	0.004161	-0.000214
9.700000	0.004395	-0.000163
9.710000	0.004425	-0.000071
9.720000	0.003265	0.000061
9.730000	0.004039	0.000102
9.740000	0.004629	-0.000122
9.750000	0.004181	-0.000264
9.760000	0.003744	-0.000376
9.770000	0.003886	-0.000702
9.780000	0.003835	-0.000183
9.790000	0.003906	-0.000203
9.800000	0.004293	0.000315
9.810000	0.003550	-0.000214
9.820000	0.004120	-0.000193
9.830000	0.004130	0.000407
9.840000	0.004364	-0.000671
9.850000	0.004801	-0.000488
9.860000	0.003876	0.000224
9.870000	0.004150	-0.000407
9.880000	0.004069	0.000285
9.890000	0.004944	0.000102
9.900000	0.004140	-0.000112
9.910000	0.004293	0.000234
9.920000	0.004242	0.000010
9.930000	0.003621	0.000020
9.940000	0.004903	0.000112
9.950000	0.004211	-0.000092
9.960000	0.004252	-0.000183
9.970000	0.003682	0.000356
9.980000	0.004344	-0.000488
9.990000	0.004527	-0.000020
10.000000	0.003825	-0.000183
